File: resources/bayes_classifier/dsc_0264_rgb_pixels_foam.csv
 ,Label,Area,Mean,X,Y
1,DSC_0264.JPG,0,115,436.000,836.000
7,DSC_0264.JPG,0,163,1179.500,379.500
13,DSC_0264.JPG,0,73,1927.500,395.500
19,DSC_0264.JPG,0,70,1435.500,1219.500
25,DSC_0264.JPG,0,112,1995.500,1767.500
31,DSC_0264.JPG,0,75,2447.500,1759.500
37,DSC_0264.JPG,0,131,2567.500,1167.500
43,DSC_0264.JPG,0,120,2987.500,375.500
49,DSC_0264.JPG,0,155,3367.500,1435.500
55,DSC_0264.JPG,0,109,3391.500,2631.500
61,DSC_0264.JPG,0,152,3107.500,3199.500
67,DSC_0264.JPG,0,157,2559.500,2451.500
73,DSC_0264.JPG,0,108,2319.500,1907.500
79,DSC_0264.JPG,0,45,1567.500,2047.500
85,DSC_0264.JPG,0,85,955.500,1987.500
91,DSC_0264.JPG,0,95,971.500,1591.500
97,DSC_0264.JPG,0,177,331.500,1999.500
103,DSC_0264.JPG,0,198,743.500,2411.500
109,DSC_0264.JPG,0,82,435.500,2875.500
115,DSC_0264.JPG,0,92,763.500,3395.500
121,DSC_0264.JPG,0,58,1027.500,3455.500
127,DSC_0264.JPG,0,171,1667.500,3307.500
133,DSC_0264.JPG,0,100,1687.500,2759.500
139,DSC_0264.JPG,0,114,1931.500,3091.500
145,DSC_0264.JPG,0,84,2359.500,3511.500
151,DSC_0264.JPG,0,116,2939.500,3523.500
157,DSC_0264.JPG,0,164,2555.500,3075.500
163,DSC_0264.JPG,0,77,1911.500,2391.500
169,DSC_0264.JPG,0,45,2227.500,1747.500
175,DSC_0264.JPG,0,152,1287.500,2479.500
181,DSC_0264.JPG,0,101,775.500,1855.500
187,DSC_0264.JPG,0,95,923.500,1027.500
193,DSC_0264.JPG,0,80,1379.500,1295.500
199,DSC_0264.JPG,0,189,1791.500,1223.500
205,DSC_0264.JPG,0,170,1527.500,1623.500
211,DSC_0264.JPG,0,196,2263.500,1451.500
217,DSC_0264.JPG,0,54,2027.500,1019.500
223,DSC_0264.JPG,0,95,2207.500,855.500
229,DSC_0264.JPG,0,115,2687.500,1407.500
235,DSC_0264.JPG,0,140,3207.500,1199.500
241,DSC_0264.JPG,0,104,3087.500,1787.500
247,DSC_0264.JPG,0,148,2999.500,2271.500
253,DSC_0264.JPG,0,37,3343.500,2083.500
259,DSC_0264.JPG,0,160,659.500,487.500
265,DSC_0264.JPG,0,80,1267.500,603.500
271,DSC_0264.JPG,0,200,1907.500,503.500
277,DSC_0264.JPG,0,141,1823.500,1171.500
283,DSC_0264.JPG,0,68,2235.500,1859.500
289,DSC_0264.JPG,0,77,2687.500,1583.500
295,DSC_0264.JPG,0,104,2823.500,883.500
301,DSC_0264.JPG,0,148,3347.500,671.500
307,DSC_0264.JPG,0,199,3407.500,1815.500
313,DSC_0264.JPG,0,178,3351.500,2959.500
319,DSC_0264.JPG,0,113,2863.500,2767.500
325,DSC_0264.JPG,0,171,2435.500,2327.500
331,DSC_0264.JPG,0,68,1907.500,1803.500
337,DSC_0264.JPG,0,57,1351.500,1895.500
343,DSC_0264.JPG,0,141,1007.500,2151.500
349,DSC_0264.JPG,0,117,831.500,1807.500
355,DSC_0264.JPG,0,176,427.500,2259.500
361,DSC_0264.JPG,0,125,623.500,2463.500
367,DSC_0264.JPG,0,131,567.500,3287.500
373,DSC_0264.JPG,0,192,607.500,3051.500
379,DSC_0264.JPG,0,173,1567.500,3515.500
385,DSC_0264.JPG,0,125,1351.500,3071.500
391,DSC_0264.JPG,0,100,1903.500,3019.500
397,DSC_0264.JPG,0,138,2171.500,3355.500
403,DSC_0264.JPG,0,114,2295.500,3403.500
409,DSC_0264.JPG,0,133,2487.500,3083.500
415,DSC_0264.JPG,0,168,2279.500,2655.500
421,DSC_0264.JPG,0,104,2119.500,2211.500
427,DSC_0264.JPG,0,93,1567.500,2191.500
433,DSC_0264.JPG,0,168,1115.500,2243.500
439,DSC_0264.JPG,0,147,651.500,1779.500
445,DSC_0264.JPG,0,168,1039.500,915.500
451,DSC_0264.JPG,0,116,1147.500,1083.500
457,DSC_0264.JPG,0,170,1775.500,1315.500
463,DSC_0264.JPG,0,166,1371.500,1735.500
469,DSC_0264.JPG,0,185,2375.500,1599.500
475,DSC_0264.JPG,0,137,1923.500,1191.500
481,DSC_0264.JPG,0,86,2379.500,1031.500
487,DSC_0264.JPG,0,61,2959.500,1403.500
493,DSC_0264.JPG,0,61,3347.500,1399.500
499,DSC_0264.JPG,0,141,2999.500,1915.500
505,DSC_0264.JPG,0,177,3119.500,2375.500
511,DSC_0264.JPG,0,158,3359.500,1951.500
517,DSC_0264.JPG,0,167,707.500,699.500
523,DSC_0264.JPG,0,102,1427.500,375.500
529,DSC_0264.JPG,0,87,1627.500,1035.500
535,DSC_0264.JPG,0,145,1659.500,1363.500
541,DSC_0264.JPG,0,102,2227.500,1519.500
547,DSC_0264.JPG,0,134,2823.500,1459.500
553,DSC_0264.JPG,0,97,2487.500,479.500
559,DSC_0264.JPG,0,108,3411.500,1075.500
565,DSC_0264.JPG,0,94,3411.500,2311.500
571,DSC_0264.JPG,0,140,2979.500,3375.500
577,DSC_0264.JPG,0,76,2807.500,2627.500
583,DSC_0264.JPG,0,159,2219.500,2107.500
589,DSC_0264.JPG,0,90,1755.500,1979.500
595,DSC_0264.JPG,0,32,1047.500,1835.500
601,DSC_0264.JPG,0,103,1015.500,1675.500
607,DSC_0264.JPG,0,112,399.500,1747.500
613,DSC_0264.JPG,0,44,499.500,2443.500
619,DSC_0264.JPG,0,179,443.500,2587.500
625,DSC_0264.JPG,0,148,531.500,3087.500
631,DSC_0264.JPG,0,46,847.500,3375.500
637,DSC_0264.JPG,0,126,1647.500,3375.500
643,DSC_0264.JPG,0,26,1639.500,2659.500
649,DSC_0264.JPG,0,67,1995.500,2983.500
655,DSC_0264.JPG,0,146,2155.500,3495.500
661,DSC_0264.JPG,0,96,2655.500,3543.500
667,DSC_0264.JPG,0,131,2519.500,3047.500
673,DSC_0264.JPG,0,131,2047.500,2567.500
679,DSC_0264.JPG,0,167,2227.500,2003.500
685,DSC_0264.JPG,0,110,1655.500,2135.500
691,DSC_0264.JPG,0,44,999.500,2007.500
697,DSC_0264.JPG,0,55,735.500,1123.500
703,DSC_0264.JPG,0,121,1227.500,1163.500
709,DSC_0264.JPG,0,120,1719.500,1003.500
715,DSC_0264.JPG,0,138,1623.500,1435.500
721,DSC_0264.JPG,0,63,2111.500,1371.500
727,DSC_0264.JPG,0,91,2215.500,887.500
733,DSC_0264.JPG,0,50,2055.500,655.500
739,DSC_0264.JPG,0,118,2527.500,1119.500
745,DSC_0264.JPG,0,145,3067.500,1247.500
751,DSC_0264.JPG,0,143,3323.500,1651.500
757,DSC_0264.JPG,0,72,2891.500,2071.500
763,DSC_0264.JPG,0,88,3335.500,2375.500
769,DSC_0264.JPG,0,114,436.000,836.000
775,DSC_0264.JPG,0,162,1179.500,379.500
781,DSC_0264.JPG,0,72,1927.500,395.500
787,DSC_0264.JPG,0,66,1435.500,1219.500
793,DSC_0264.JPG,0,108,1995.500,1767.500
799,DSC_0264.JPG,0,74,2447.500,1759.500
805,DSC_0264.JPG,0,126,2567.500,1167.500
811,DSC_0264.JPG,0,117,2987.500,375.500
817,DSC_0264.JPG,0,149,3367.500,1435.500
823,DSC_0264.JPG,0,104,3391.500,2631.500
829,DSC_0264.JPG,0,146,3107.500,3199.500
835,DSC_0264.JPG,0,147,2559.500,2451.500
841,DSC_0264.JPG,0,107,2319.500,1907.500
847,DSC_0264.JPG,0,44,1567.500,2047.500
853,DSC_0264.JPG,0,84,955.500,1987.500
859,DSC_0264.JPG,0,90,971.500,1591.500
865,DSC_0264.JPG,0,174,331.500,1999.500
871,DSC_0264.JPG,0,197,743.500,2411.500
877,DSC_0264.JPG,0,78,435.500,2875.500
883,DSC_0264.JPG,0,91,763.500,3395.500
889,DSC_0264.JPG,0,55,1027.500,3455.500
895,DSC_0264.JPG,0,159,1667.500,3307.500
901,DSC_0264.JPG,0,99,1687.500,2759.500
907,DSC_0264.JPG,0,110,1931.500,3091.500
913,DSC_0264.JPG,0,80,2359.500,3511.500
919,DSC_0264.JPG,0,115,2939.500,3523.500
925,DSC_0264.JPG,0,159,2555.500,3075.500
931,DSC_0264.JPG,0,72,1911.500,2391.500
937,DSC_0264.JPG,0,44,2227.500,1747.500
943,DSC_0264.JPG,0,143,1287.500,2479.500
949,DSC_0264.JPG,0,97,775.500,1855.500
955,DSC_0264.JPG,0,93,923.500,1027.500
961,DSC_0264.JPG,0,77,1379.500,1295.500
967,DSC_0264.JPG,0,185,1791.500,1223.500
973,DSC_0264.JPG,0,162,1527.500,1623.500
979,DSC_0264.JPG,0,190,2263.500,1451.500
985,DSC_0264.JPG,0,50,2027.500,1019.500
991,DSC_0264.JPG,0,93,2207.500,855.500
997,DSC_0264.JPG,0,111,2687.500,1407.500
1003,DSC_0264.JPG,0,136,3207.500,1199.500
1009,DSC_0264.JPG,0,101,3087.500,1787.500
1015,DSC_0264.JPG,0,146,2999.500,2271.500
1021,DSC_0264.JPG,0,35,3343.500,2083.500
1027,DSC_0264.JPG,0,158,659.500,487.500
1033,DSC_0264.JPG,0,79,1267.500,603.500
1039,DSC_0264.JPG,0,200,1907.500,503.500
1045,DSC_0264.JPG,0,141,1823.500,1171.500
1051,DSC_0264.JPG,0,68,2235.500,1859.500
1057,DSC_0264.JPG,0,77,2687.500,1583.500
1063,DSC_0264.JPG,0,105,2823.500,883.500
1069,DSC_0264.JPG,0,148,3347.500,671.500
1075,DSC_0264.JPG,0,198,3407.500,1815.500
1081,DSC_0264.JPG,0,177,3351.500,2959.500
1087,DSC_0264.JPG,0,113,2863.500,2767.500
1093,DSC_0264.JPG,0,170,2435.500,2327.500
1099,DSC_0264.JPG,0,68,1907.500,1803.500
1105,DSC_0264.JPG,0,58,1351.500,1895.500
1111,DSC_0264.JPG,0,141,1007.500,2151.500
1117,DSC_0264.JPG,0,117,831.500,1807.500
1123,DSC_0264.JPG,0,174,427.500,2259.500
1129,DSC_0264.JPG,0,125,623.500,2463.500
1135,DSC_0264.JPG,0,130,567.500,3287.500
1141,DSC_0264.JPG,0,191,607.500,3051.500
1147,DSC_0264.JPG,0,172,1567.500,3515.500
1153,DSC_0264.JPG,0,126,1351.500,3071.500
1159,DSC_0264.JPG,0,101,1903.500,3019.500
1165,DSC_0264.JPG,0,139,2171.500,3355.500
1171,DSC_0264.JPG,0,114,2295.500,3403.500
1177,DSC_0264.JPG,0,133,2487.500,3083.500
1183,DSC_0264.JPG,0,168,2279.500,2655.500
1189,DSC_0264.JPG,0,104,2119.500,2211.500
1195,DSC_0264.JPG,0,93,1567.500,2191.500
1201,DSC_0264.JPG,0,167,1115.500,2243.500
1207,DSC_0264.JPG,0,148,651.500,1779.500
1213,DSC_0264.JPG,0,169,1039.500,915.500
1219,DSC_0264.JPG,0,116,1147.500,1083.500
1225,DSC_0264.JPG,0,169,1775.500,1315.500
1231,DSC_0264.JPG,0,167,1371.500,1735.500
1237,DSC_0264.JPG,0,185,2375.500,1599.500
1243,DSC_0264.JPG,0,137,1923.500,1191.500
1249,DSC_0264.JPG,0,87,2379.500,1031.500
1255,DSC_0264.JPG,0,60,2959.500,1403.500
1261,DSC_0264.JPG,0,62,3347.500,1399.500
1267,DSC_0264.JPG,0,142,2999.500,1915.500
1273,DSC_0264.JPG,0,176,3119.500,2375.500
1279,DSC_0264.JPG,0,158,3359.500,1951.500
1280,0.299R+0.587G+0.114B,0,155,3339.500,1891.500